# *CALIBRATION************
# Voff:  -0.000557, -0.000502, 0.000355
# Oe*Vref/V:  18766.300781, 19118.269531, 18920.400390
# mV/Vref/Oe:  0.053287, 0.052306, 0.052853
# Hrel:  0.000000, 0.000000, 0.000000
# ADC Vref:  4.000000
# ADC Bits:  16
# ADC samples:  10
# ADC Speed:  4
# Linearization
# A0:  0.000000, 0.000000, 0.000000
# A1:  1.000000, 1.000000, 1.000000
# A2:  0.000000, 0.000000, 0.000000
# A3:  0.222500, 0.222500, 0.222500
# A4:  0.000000, 0.000000, 0.000000
# A5:  3.403000, 3.403000, 3.403000
# Orthogonalization
# 1.000000, 0.000000, 0.000000
# 0.000000, 1.000000, 0.000000
# 0.000000, 0.000000, 1.000000
# EEPROM Cal Valid, Valid, Valid
# EEPROM Lin Valid, Valid, Valid
# EEPROM Ortho Not Valid
# Sensor ID:   USB25103-1715507101             
# Software Version:  MDTUSBMAG3D.V9.20220510
# ************************
# 
# SENSOR_NB_SAMPLE: 10 
# SENSOR_GAIN: 1 
# SENSOR_READ_DELAY: 0.7 
# SENSOR_Oe_mT: 0.1 
# working dist: 6 mm
# Rotation step angle: 2.4°
# sensor pos #1: 0 mm
# sensor pos #2: 15 mm
# sensor pos #3: 30 mm
# sensor pos #4: 45 mm
# sensor pos #5: 60 mm
# sensor pos #6: 75 mm
# sensor pos #7: 90 mm
#
# ZPos#; a[°]; X1_magn[mT]; Y1_magn[mT]; Z1_magn[mT]
 1;  0.0;   93.039000;  -28.671000;   12.443000
 1;  2.4;   92.097000;  -27.682000;   19.721000
 1;  4.8;   87.998000;  -26.146000;   27.212000
 1;  7.2;   78.787000;  -23.936000;   34.404000
 1;  9.6;   67.282000;  -21.316000;   39.997000
 1; 12.0;   58.114000;  -18.368000;   44.302000
 1; 14.4;   51.854000;  -15.190000;   48.264000
 1; 16.8;   43.735000;  -11.851000;   52.257000
 1; 19.2;   29.803000;   -8.151000;   55.724000
 1; 21.6;   14.689000;   -4.371400;   57.510000
 1; 24.0;    3.524100;   -0.506620;   57.928000
 1; 26.4;   -4.991500;    3.345800;   57.998000
 1; 28.8;  -16.685000;    7.137000;   57.850000
 1; 31.2;  -32.678000;   11.029000;   56.444000
 1; 33.6;  -45.665000;   14.613000;   53.401000
 1; 36.0;  -53.359000;   17.969000;   49.481000
 1; 38.4;  -60.064000;   21.092000;   45.677000
 1; 40.8;  -70.459000;   23.917000;   41.709000
 1; 43.2;  -83.497000;   26.530000;   36.134000
 1; 45.6;  -92.387000;   28.554000;   29.059000
 1; 48.0;  -95.900000;   29.992000;   21.138000
 1; 50.4;  -96.361000;   30.893000;   13.441000
 1; 52.8;  -96.069000;   31.345000;    6.508100
 1; 55.2;  -95.986000;   31.466000;   -0.225640
 1; 57.6;  -96.307000;   31.252000;   -6.702200
 1; 60.0;  -96.661000;   30.695000;  -13.741000
 1; 62.4;  -95.769000;   29.643000;  -21.407000
 1; 64.8;  -91.224000;   28.075000;  -29.232000
 1; 67.2;  -80.634000;   25.797000;  -36.678000
 1; 69.6;  -67.889000;   23.117000;  -42.237000
 1; 72.0;  -58.472000;   20.098000;  -46.432000
 1; 74.4;  -52.471000;   16.874000;  -50.271000
 1; 76.8;  -43.919000;   13.409000;  -54.283000
 1; 79.2;  -28.852000;    9.557400;  -57.668000
 1; 81.6;  -13.267000;    5.625100;  -59.208000
 1; 84.0;   -2.583700;    1.621800;  -59.444000
 1; 86.4;    5.800600;   -2.355300;  -59.492000
 1; 88.8;   18.403000;   -6.273100;  -59.294000
 1; 91.2;   35.328000;  -10.254000;  -57.674000
 1; 93.6;   48.074000;  -13.899000;  -54.306000
 1; 96.0;   55.174000;  -17.300000;  -50.214000
 1; 98.4;   62.122000;  -20.431000;  -46.325000
 1;100.8;   73.412000;  -23.285000;  -42.138000
 1;103.2;   86.619000;  -25.889000;  -36.137000
 1;105.6;   94.628000;  -27.847000;  -28.727000
 1;108.0;   97.231000;  -29.210000;  -20.592000
 1;110.4;   97.208000;  -30.022000;  -12.895000
 1;112.8;   96.715000;  -30.400000;   -5.991200
 1;115.2;   96.540000;  -30.443000;    0.723340
 1;117.6;   96.781000;  -30.168000;    7.276800
 1;120.0;   96.954000;  -29.527000;   14.421000
 1;122.4;   95.554000;  -28.382000;   22.192000
 1;124.8;   89.989000;  -26.713000;   30.016000
 1;127.2;   78.382000;  -24.323000;   37.240000
 1;129.6;   65.674000;  -21.561000;   42.498000
 1;132.0;   56.822000;  -18.482000;   46.497000
 1;134.4;   50.660000;  -15.231000;   50.291000
 1;136.8;   41.164000;  -11.759000;   54.137000
 1;139.2;   25.475000;   -7.864900;   57.186000
 1;141.6;   10.651000;   -3.976700;   58.367000
 1;144.0;    0.675090;   -0.037998;   58.398000
 1;146.4;   -8.097500;    3.869700;   58.317000
 1;148.8;  -21.142000;    7.703800;   57.847000
 1;151.2;  -37.377000;   11.592000;   55.846000
 1;153.6;  -48.867000;   15.109000;   52.297000
 1;156.0;  -55.532000;   18.390000;   48.174000
 1;158.4;  -62.776000;   21.427000;   44.203000
 1;160.8;  -73.845000;   24.178000;   39.812000
 1;163.2;  -85.823000;   26.608000;   33.699000
 1;165.6;  -92.713000;   28.440000;   26.346000
 1;168.0;  -94.835000;   29.728000;   18.481000
 1;170.4;  -94.740000;   30.465000;   11.014000
 1;172.8;  -94.215000;   30.805000;    4.324100
 1;175.2;  -93.964000;   30.821000;   -2.241500
 1;177.6;  -94.002000;   30.516000;   -8.657800
 1;180.0;  -93.810000;   29.855000;  -15.634000
 1;182.4;  -91.863000;   28.709000;  -23.141000
 1;184.8;  -86.008000;   27.017000;  -30.578000
 1;187.2;  -74.969000;   24.708000;  -37.368000
 1;189.6;  -63.430000;   22.069000;  -42.340000
 1;192.0;  -55.077000;   19.072000;  -46.281000
 1;194.4;  -48.545000;   15.892000;  -50.009000
 1;196.8;  -38.961000;   12.527000;  -53.657000
 1;199.2;  -24.296000;    8.779200;  -56.475000
 1;201.6;  -10.620000;    5.014900;  -57.635000
 1;204.0;   -0.815220;    1.195000;  -57.752000
 1;206.4;    8.228600;   -2.620800;  -57.652000
 1;208.8;   20.809000;   -6.320500;  -57.091000
 1;211.2;   35.764000;  -10.074000;  -55.107000
 1;213.6;   46.658000;  -13.519000;  -51.724000
 1;216.0;   53.515000;  -16.712000;  -47.791000
 1;218.4;   60.761000;  -19.653000;  -43.898000
 1;220.8;   71.084000;  -22.312000;  -39.575000
 1;223.2;   82.126000;  -24.672000;  -33.676000
 1;225.6;   88.852000;  -26.472000;  -26.673000
 1;228.0;   91.322000;  -27.711000;  -19.146000
 1;230.4;   91.565000;  -28.468000;  -11.921000
 1;232.8;   91.248000;  -28.778000;   -5.350000
 1;235.2;   91.107000;  -28.799000;    1.099200
 1;237.6;   91.129000;  -28.488000;    7.409800
 1;240.0;   90.865000;  -27.812000;   14.232000
 1;242.4;   88.982000;  -26.695000;   21.505000
 1;244.8;   83.631000;  -25.081000;   28.726000
 1;247.2;   73.624000;  -22.850000;   35.394000
 1;249.6;   62.710000;  -20.287000;   40.438000
 1;252.0;   54.291000;  -17.414000;   44.438000
 1;254.4;   47.654000;  -14.308000;   48.140000
 1;256.8;   38.684000;  -11.067000;   51.711000
 1;259.2;   25.065000;   -7.429900;   54.577000
 1;261.6;   11.702000;   -3.782500;   55.926000
 1;264.0;    1.646800;   -0.075338;   56.191000
 1;266.4;   -7.233900;    3.632200;   56.118000
 1;268.8;  -18.987000;    7.267700;   55.667000
 1;271.2;  -33.332000;   10.928000;   53.938000
 1;273.6;  -44.622000;   14.280000;   50.847000
 1;276.0;  -51.959000;   17.401000;   47.090000
 1;278.4;  -59.097000;   20.310000;   43.273000
 1;280.8;  -68.859000;   22.920000;   39.104000
 1;283.2;  -79.763000;   25.282000;   33.518000
 1;285.6;  -86.969000;   27.082000;   26.804000
 1;288.0;  -90.050000;   28.381000;   19.428000
 1;290.4;  -90.662000;   29.186000;   12.240000
 1;292.8;  -90.567000;   29.579000;    5.684800
 1;295.2;  -90.506000;   29.654000;   -0.736340
 1;297.6;  -90.663000;   29.405000;   -6.963800
 1;300.0;  -90.632000;   28.819000;  -13.683000
 1;302.4;  -89.272000;   27.800000;  -20.879000
 1;304.8;  -84.727000;   26.282000;  -28.107000
 1;307.2;  -75.499000;   24.175000;  -34.949000
 1;309.6;  -64.653000;   21.702000;  -40.259000
 1;312.0;  -55.928000;   18.895000;  -44.447000
 1;314.4;  -49.446000;   15.874000;  -48.267000
 1;316.8;  -41.074000;   12.639000;  -51.983000
 1;319.2;  -27.793000;    9.066400;  -55.163000
 1;321.6;  -13.968000;    5.419700;  -56.787000
 1;324.0;   -3.389400;    1.683400;  -57.238000
 1;326.4;    5.379500;   -2.064500;  -57.325000
 1;328.8;   16.899000;   -5.743600;  -57.095000
 1;331.2;   31.806000;   -9.503500;  -55.629000
 1;333.6;   43.923000;  -12.938000;  -52.707000
 1;336.0;   51.698000;  -16.195000;  -48.964000
 1;338.4;   58.684000;  -19.219000;  -45.212000
 1;340.8;   68.628000;  -21.950000;  -41.185000
 1;343.2;   80.524000;  -24.460000;  -35.686000
 1;345.6;   88.688000;  -26.419000;  -28.927000
 1;348.0;   92.175000;  -27.868000;  -21.317000
 1;350.4;   92.807000;  -28.762000;  -13.904000
 1;352.8;   92.595000;  -29.261000;   -7.176300
 1;355.2;   92.484000;  -29.396000;   -0.631760
 1;357.6;   92.692000;  -29.203000;    5.677400
 2;  0.0;   96.025000;   -8.683100;   15.629000
 2;  2.4;   95.650000;   -8.035200;   24.227000
 2;  4.8;   91.675000;   -7.266700;   32.995000
 2;  7.2;   81.552000;   -6.332900;   41.374000
 2;  9.6;   68.719000;   -5.299600;   47.711000
 2; 12.0;   58.876000;   -4.162600;   52.508000
 2; 14.4;   52.797000;   -2.940800;   56.848000
 2; 16.8;   44.754000;   -1.704500;   61.238000
 2; 19.2;   30.174000;   -0.424100;   64.961000
 2; 21.6;   14.535000;    0.822700;   66.729000
 2; 24.0;    3.784400;    2.093000;   67.042000
 2; 26.4;   -4.399900;    3.356600;   67.042000
 2; 28.8;  -16.672000;    4.544800;   66.749000
 2; 31.2;  -33.484000;    5.669900;   64.870000
 2; 33.6;  -46.452000;    6.707200;   61.133000
 2; 36.0;  -53.579000;    7.716900;   56.588000
 2; 38.4;  -60.573000;    8.618700;   52.191000
 2; 40.8;  -72.241000;    9.343800;   47.336000
 2; 43.2;  -86.136000;    9.887900;   40.410000
 2; 45.6;  -94.529000;   10.256000;   31.917000
 2; 48.0;  -97.104000;   10.506000;   22.650000
 2; 50.4;  -96.867000;   10.624000;   13.876000
 2; 52.8;  -96.242000;   10.591000;    6.061700
 2; 55.2;  -96.188000;   10.448000;   -1.517900
 2; 57.6;  -96.843000;   10.137000;   -8.879200
 2; 60.0;  -97.788000;    9.659400;  -16.927000
 2; 62.4;  -97.587000;    9.047700;  -25.779000
 2; 64.8;  -93.365000;    8.310600;  -34.911000
 2; 67.2;  -82.401000;    7.426700;  -43.434000
 2; 69.6;  -68.821000;    6.477900;  -49.766000
 2; 72.0;  -58.958000;    5.377900;  -54.522000
 2; 74.4;  -53.375000;    4.188600;  -58.863000
 2; 76.8;  -44.901000;    2.958200;  -63.387000
 2; 79.2;  -28.980000;    1.688200;  -67.097000
 2; 81.6;  -13.021000;    0.433240;  -68.617000
 2; 84.0;   -2.816800;   -0.859860;  -68.735000
 2; 86.4;    5.206500;   -2.146200;  -68.711000
 2; 88.8;   18.414000;   -3.311300;  -68.326000
 2; 91.2;   36.061000;   -4.445300;  -66.152000
 2; 93.6;   48.441000;   -5.480400;  -62.137000
 2; 96.0;   54.962000;   -6.469500;  -57.364000
 2; 98.4;   62.297000;   -7.379100;  -52.814000
 2;100.8;   74.749000;   -8.083000;  -47.760000
 2;103.2;   88.653000;   -8.621100;  -40.478000
 2;105.6;   96.301000;   -9.020300;  -31.605000
 2;108.0;   98.135000;   -9.273100;  -22.094000
 2;110.4;   97.557000;   -9.413800;  -13.416000
 2;112.8;   96.806000;   -9.400800;   -5.599100
 2;115.2;   96.735000;   -9.227900;    2.050000
 2;117.6;   97.394000;   -8.940000;    9.394300
 2;120.0;   98.193000;   -8.462400;   17.687000
 2;122.4;   97.489000;   -7.851100;   26.685000
 2;124.8;   92.305000;   -7.134600;   35.762000
 2;127.2;   80.236000;   -6.256300;   44.063000
 2;129.6;   66.744000;   -5.300400;   50.025000
 2;132.0;   57.655000;   -4.208500;   54.574000
 2;134.4;   51.982000;   -3.019600;   58.875000
 2;136.8;   42.563000;   -1.818000;   63.209000
 2;139.2;   26.226000;   -0.547320;   66.537000
 2;141.6;   10.857000;    0.680430;   67.720000
 2;144.0;    1.241700;    1.969800;   67.653000
 2;146.4;   -7.248200;    3.248000;   67.464000
 2;148.8;  -21.050000;    4.430200;   66.759000
 2;151.2;  -37.914000;    5.570900;   64.234000
 2;153.6;  -49.258000;    6.619100;   60.040000
 2;156.0;  -55.596000;    7.637700;   55.225000
 2;158.4;  -63.313000;    8.550000;   50.664000
 2;160.8;  -75.640000;    9.287800;   45.356000
 2;163.2;  -88.293000;    9.861000;   37.903000
 2;165.6;  -94.867000;   10.275000;   29.162000
 2;168.0;  -96.343000;   10.568000;   20.009000
 2;170.4;  -95.753000;   10.719000;   11.474000
 2;172.8;  -95.085000;   10.730000;    3.906900
 2;175.2;  -94.997000;   10.575000;   -3.543700
 2;177.6;  -95.481000;   10.261000;  -10.901000
 2;180.0;  -95.945000;    9.805700;  -18.919000
 2;182.4;  -94.642000;    9.195200;  -27.684000
 2;184.8;  -88.952000;    8.454000;  -36.339000
 2;187.2;  -77.265000;    7.566800;  -44.207000
 2;189.6;  -64.841000;    6.605600;  -49.921000
 2;192.0;  -56.291000;    5.490600;  -54.356000
 2;194.4;  -50.122000;    4.281200;  -58.590000
 2;196.8;  -40.442000;    3.069500;  -62.687000
 2;199.2;  -25.095000;    1.790200;  -65.777000
 2;201.6;  -10.818000;    0.525840;  -66.933000
 2;204.0;   -1.234200;   -0.786670;  -66.964000
 2;206.4;    7.670300;   -2.077500;  -66.784000
 2;208.8;   20.932000;   -3.275800;  -65.981000
 2;211.2;   36.820000;   -4.471800;  -63.482000
 2;213.6;   47.765000;   -5.533400;  -59.468000
 2;216.0;   54.497000;   -6.588600;  -54.898000
 2;218.4;   62.321000;   -7.502000;  -50.308000
 2;220.8;   73.834000;   -8.263700;  -45.070000
 2;223.2;   85.693000;   -8.850400;  -37.866000
 2;225.6;   92.208000;   -9.277900;  -29.474000
 2;228.0;   94.062000;   -9.551300;  -20.658000
 2;230.4;   93.822000;   -9.683800;  -12.342000
 2;232.8;   93.318000;   -9.656600;   -4.904000
 2;235.2;   93.240000;   -9.493000;    2.421700
 2;237.6;   93.658000;   -9.180500;    9.623400
 2;240.0;   93.929000;   -8.694300;   17.529000
 2;242.4;   92.591000;   -8.062100;   25.998000
 2;244.8;   87.346000;   -7.288400;   34.409000
 2;247.2;   76.706000;   -6.382100;   42.125000
 2;249.6;   64.870000;   -5.405700;   47.893000
 2;252.0;   56.086000;   -4.276100;   52.408000
 2;254.4;   49.612000;   -3.038700;   56.621000
 2;256.8;   40.446000;   -1.789300;   60.647000
 2;259.2;   25.994000;   -0.513340;   63.791000
 2;261.6;   11.986000;    0.762950;   65.124000
 2;264.0;    1.937800;    2.054200;   65.297000
 2;266.4;   -6.938100;    3.321500;   65.126000
 2;268.8;  -19.324000;    4.530200;   64.448000
 2;271.2;  -34.538000;    5.679600;   62.237000
 2;273.6;  -45.897000;    6.751600;   58.501000
 2;276.0;  -52.983000;    7.774400;   54.118000
 2;278.4;  -60.559000;    8.690700;   49.678000
 2;280.8;  -71.477000;    9.446100;   44.650000
 2;283.2;  -83.298000;   10.052000;   37.836000
 2;285.6;  -90.479000;   10.482000;   29.732000
 2;288.0;  -92.962000;   10.752000;   21.059000
 2;290.4;  -93.031000;   10.899000;   12.804000
 2;292.8;  -92.671000;   10.880000;    5.331900
 2;295.2;  -92.647000;   10.732000;   -1.968400
 2;297.6;  -93.093000;   10.407000;   -9.124200
 2;300.0;  -93.553000;    9.918100;  -16.881000
 2;302.4;  -92.702000;    9.273600;  -25.270000
 2;304.8;  -88.239000;    8.486800;  -33.710000
 2;307.2;  -78.296000;    7.578300;  -41.666000
 2;309.6;  -66.478000;    6.566800;  -47.676000
 2;312.0;  -57.334000;    5.457400;  -52.373000
 2;314.4;  -51.015000;    4.233700;  -56.686000
 2;316.8;  -42.566000;    2.994400;  -60.873000
 2;319.2;  -28.582000;    1.717700;  -64.327000
 2;321.6;  -14.112000;    0.469460;  -65.994000
 2;324.0;   -3.619900;   -0.830360;  -66.342000
 2;326.4;    4.965000;   -2.104000;  -66.366000
 2;328.8;   17.032000;   -3.297100;  -65.943000
 2;331.2;   32.802000;   -4.445300;  -64.041000
 2;333.6;   45.035000;   -5.481500;  -60.483000
 2;336.0;   52.431000;   -6.505700;  -56.136000
 2;338.4;   59.787000;   -7.431800;  -51.787000
 2;340.8;   70.990000;   -8.186100;  -46.961000
 2;343.2;   83.870000;   -8.781700;  -40.249000
 2;345.6;   92.026000;   -9.192000;  -32.034000
 2;348.0;   94.931000;   -9.475800;  -23.098000
 2;350.4;   95.051000;   -9.616600;  -14.562000
 2;352.8;   94.653000;   -9.603500;   -6.902500
 2;355.2;   94.648000;   -9.458300;    0.560370
 2;357.6;   95.232000;   -9.140500;    7.804100
 3;  0.0;   95.122000;   -0.812440;   19.361000
 3;  2.4;   93.343000;   -0.165330;   28.835000
 3;  4.8;   86.325000;    0.484770;   38.103000
 3;  7.2;   73.294000;    1.077400;   46.313000
 3;  9.6;   61.037000;    1.558300;   52.249000
 3; 12.0;   53.669000;    2.043700;   57.018000
 3; 14.4;   47.801000;    2.593000;   61.799000
 3; 16.8;   36.756000;    3.125500;   66.401000
 3; 19.2;   20.024000;    3.589200;   69.612000
 3; 21.6;    6.695000;    3.927900;   70.721000
 3; 24.0;   -1.408300;    4.249100;   70.916000
 3; 26.4;  -10.669000;    4.584000;   71.072000
 3; 28.8;  -25.837000;    4.817400;   70.347000
 3; 31.2;  -42.056000;    4.927200;   67.490000
 3; 33.6;  -51.208000;    4.964500;   63.126000
 3; 36.0;  -56.662000;    4.997400;   58.529000
 3; 38.4;  -65.755000;    5.022800;   53.987000
 3; 40.8;  -79.533000;    4.910000;   48.235000
 3; 43.2;  -91.636000;    4.622100;   40.012000
 3; 45.6;  -96.583000;    4.267000;   30.599000
 3; 48.0;  -96.905000;    3.893200;   20.957000
 3; 50.4;  -95.851000;    3.568000;   12.144000
 3; 52.8;  -95.088000;    3.237500;    4.054400
 3; 55.2;  -95.195000;    2.861500;   -3.815300
 3; 57.6;  -96.016000;    2.397700;  -11.799000
 3; 60.0;  -96.728000;    1.841300;  -20.754000
 3; 62.4;  -95.054000;    1.199100;  -30.379000
 3; 64.8;  -87.494000;    0.547130;  -39.958000
 3; 67.2;  -73.378000;   -0.032023;  -48.292000
 3; 69.6;  -60.774000;   -0.496540;  -54.105000
 3; 72.0;  -53.855000;   -0.955450;  -58.806000
 3; 74.4;  -48.277000;   -1.463300;  -63.677000
 3; 76.8;  -36.438000;   -1.979300;  -68.424000
 3; 79.2;  -18.950000;   -2.397500;  -71.564000
 3; 81.6;   -5.447100;   -2.703000;  -72.483000
 3; 84.0;    2.121800;   -2.996100;  -72.568000
 3; 86.4;   11.585000;   -3.325100;  -72.735000
 3; 88.8;   27.867000;   -3.550200;  -71.869000
 3; 91.2;   44.373000;   -3.642800;  -68.684000
 3; 93.6;   52.852000;   -3.640200;  -64.090000
 3; 96.0;   58.080000;   -3.677600;  -59.280000
 3; 98.4;   67.637000;   -3.674600;  -54.650000
 3;100.8;   81.868000;   -3.565200;  -48.717000
 3;103.2;   93.806000;   -3.260500;  -39.979000
 3;105.6;   97.947000;   -2.888900;  -30.361000
 3;108.0;   97.764000;   -2.541700;  -20.684000
 3;110.4;   96.483000;   -2.222400;  -11.769000
 3;112.8;   95.688000;   -1.912500;   -3.800900
 3;115.2;   95.794000;   -1.548800;    4.187400
 3;117.6;   96.604000;   -1.120500;   12.192000
 3;120.0;   97.141000;   -0.564870;   21.278000
 3;122.4;   94.892000;    0.046765;   31.057000
 3;124.8;   86.477000;    0.639730;   40.501000
 3;127.2;   71.954000;    1.162900;   48.558000
 3;129.6;   59.798000;    1.588500;   54.158000
 3;132.0;   53.236000;    2.023200;   58.789000
 3;134.4;   47.008000;    2.529200;   63.626000
 3;136.8;   34.275000;    3.024700;   68.115000
 3;139.2;   16.605000;    3.404000;   70.877000
 3;141.6;    4.058200;    3.681900;   71.508000
 3;144.0;   -3.414300;    3.974600;   71.455000
 3;146.4;  -13.672000;    4.287100;   71.387000
 3;148.8;  -29.766000;    4.478300;   70.200000
 3;151.2;  -45.185000;    4.564600;   66.755000
 3;153.6;  -53.075000;    4.604200;   62.078000
 3;156.0;  -58.558000;    4.663900;   57.350000
 3;158.4;  -68.570000;    4.694500;   52.539000
 3;160.8;  -82.281000;    4.609800;   46.306000
 3;163.2;  -92.846000;    4.357000;   37.670000
 3;165.6;  -96.389000;    4.070900;   28.229000
 3;168.0;  -96.162000;    3.766600;   18.694000
 3;170.4;  -94.985000;    3.495900;   10.074000
 3;172.8;  -94.239000;    3.239700;    2.241400
 3;175.2;  -94.286000;    2.904400;   -5.664200
 3;177.6;  -94.877000;    2.499700;  -13.594000
 3;180.0;  -94.987000;    2.004100;  -22.456000
 3;182.4;  -92.098000;    1.412300;  -32.007000
 3;184.8;  -83.569000;    0.844360;  -40.965000
 3;187.2;  -69.773000;    0.335030;  -48.711000
 3;189.6;  -58.459000;   -0.103720;  -54.144000
 3;192.0;  -51.849000;   -0.586530;  -58.708000
 3;194.4;  -45.007000;   -1.110800;  -63.372000
 3;196.8;  -32.491000;   -1.613800;  -67.565000
 3;199.2;  -16.272000;   -2.035300;  -70.134000
 3;201.6;   -4.368700;   -2.356800;  -70.852000
 3;204.0;    3.646200;   -2.692500;  -70.876000
 3;206.4;   14.060000;   -3.050200;  -70.786000
 3;208.8;   29.268000;   -3.299300;  -69.558000
 3;211.2;   44.004000;   -3.443400;  -66.139000
 3;213.6;   51.875000;   -3.546100;  -61.780000
 3;216.0;   57.870000;   -3.653700;  -57.125000
