# *CALIBRATION************
# Voff:  -0.000557, -0.000502, 0.000355
# Oe*Vref/V:  18766.300781, 19118.269531, 18920.400390
# mV/Vref/Oe:  0.053287, 0.052306, 0.052853
# Hrel:  0.000000, 0.000000, 0.000000
# ADC Vref:  4.000000
# ADC Bits:  16
# ADC samples:  10
# ADC Speed:  4
# Linearization
# A0:  0.000000, 0.000000, 0.000000
# A1:  1.000000, 1.000000, 1.000000
# A2:  0.000000, 0.000000, 0.000000
# A3:  0.222500, 0.222500, 0.222500
# A4:  0.000000, 0.000000, 0.000000
# A5:  3.403000, 3.403000, 3.403000
# Orthogonalization
# 1.000000, 0.000000, 0.000000
# 0.000000, 1.000000, 0.000000
# 0.000000, 0.000000, 1.000000
# EEPROM Cal Valid, Valid, Valid
# EEPROM Lin Valid, Valid, Valid
# EEPROM Ortho Not Valid
# Sensor ID:   USB25103-1715507101             
# Software Version:  MDTUSBMAG3D.V9.20220510
# ************************
# 
# SENSOR_NB_SAMPLE: 10 
# SENSOR_GAIN: 1 
# SENSOR_READ_DELAY: 0.7 
# SENSOR_Oe_mT: 0.1 
# working dist: 1 mm
# Rotation step angle: 1.2°
# sensor pos #1: 0 mm
# sensor pos #2: 60 mm
#
# ZPos#; a[°]; X1_magn[mT]; Y1_magn[mT]; Z1_magn[mT]
 1;  0.0;  112.560000;  -33.652000;   14.021000
 1;  1.2;  113.490000;  -33.229000;   18.321000
 1;  2.4;  113.960000;  -32.670000;   22.830000
 1;  3.6;  113.330000;  -31.913000;   27.481000
 1;  4.8;  110.650000;  -30.947000;   32.352000
 1;  6.0;  104.840000;  -29.729000;   37.175000
 1;  7.2;   95.841000;  -28.289000;   41.480000
 1;  8.4;   85.298000;  -26.702000;   44.990000
 1;  9.6;   75.786000;  -25.028000;   47.603000
 1; 10.8;   68.766000;  -23.290000;   49.633000
 1; 12.0;   65.150000;  -21.505000;   51.353000
 1; 13.2;   64.090000;  -19.701000;   53.154000
 1; 14.4;   63.850000;  -17.919000;   55.292000
 1; 15.6;   62.404000;  -16.108000;   57.819000
 1; 16.8;   57.650000;  -14.139000;   60.683000
 1; 18.0;   48.340000;  -12.022000;   63.460000
 1; 19.2;   35.278000;   -9.785000;   65.625000
 1; 20.4;   21.769000;   -7.536300;   66.838000
 1; 21.6;   10.783000;   -5.321700;   67.165000
 1; 22.8;    3.723900;   -3.075300;   66.875000
 1; 24.0;    0.513080;   -0.852760;   66.413000
 1; 25.2;   -0.718820;    1.356300;   66.216000
 1; 26.4;   -2.682300;    3.540000;   66.442000
 1; 27.6;   -7.598600;    5.700100;   66.921000
 1; 28.8;  -17.030000;    7.988300;   67.350000
 1; 30.0;  -30.321000;   10.341000;   67.190000
 1; 31.2;  -44.473000;   12.656000;   66.091000
 1; 32.4;  -55.791000;   14.857000;   64.062000
 1; 33.6;  -62.400000;   16.866000;   61.462000
 1; 34.8;  -64.995000;   18.819000;   58.631000
 1; 36.0;  -65.274000;   20.717000;   55.996000
 1; 37.2;  -65.558000;   22.525000;   53.889000
 1; 38.4;  -67.929000;   24.281000;   52.242000
 1; 39.6;  -73.726000;   26.003000;   50.748000
 1; 40.8;  -83.403000;   27.734000;   48.894000
 1; 42.0;  -95.474000;   29.425000;   46.238000
 1; 43.2; -106.760000;   30.968000;   42.613000
 1; 44.4; -114.470000;   32.290000;   38.196000
 1; 45.6; -118.300000;   33.368000;   33.313000
 1; 46.8; -119.390000;   34.256000;   28.127000
 1; 48.0; -118.860000;   34.966000;   23.011000
 1; 49.2; -117.720000;   35.470000;   18.239000
 1; 50.4; -116.490000;   35.841000;   13.896000
 1; 51.6; -115.460000;   36.085000;    9.986300
 1; 52.8; -114.710000;   36.261000;    6.260900
 1; 54.0; -114.350000;   36.352000;    2.679700
 1; 55.2; -114.360000;   36.369000;   -0.783280
 1; 56.4; -114.740000;   36.341000;   -4.190800
 1; 57.6; -115.470000;   36.255000;   -7.625300
 1; 58.8; -116.510000;   36.063000;  -11.351000
 1; 60.0; -117.770000;   35.782000;  -15.456000
 1; 61.2; -119.010000;   35.373000;  -19.905000
 1; 62.4; -119.760000;   34.795000;  -24.636000
 1; 63.6; -119.230000;   34.027000;  -29.615000
 1; 64.8; -116.170000;   33.051000;  -34.832000
 1; 66.0; -109.200000;   31.775000;  -39.930000
 1; 67.2;  -98.444000;   30.317000;  -44.372000
 1; 68.4;  -86.258000;   28.701000;  -47.841000
 1; 69.6;  -75.734000;   27.008000;  -50.330000
 1; 70.8;  -68.685000;   25.238000;  -52.153000
 1; 72.0;  -65.678000;   23.428000;  -53.681000
 1; 73.2;  -65.512000;   21.626000;  -55.349000
 1; 74.4;  -65.889000;   19.802000;  -57.521000
 1; 75.6;  -64.492000;   17.911000;  -60.161000
 1; 76.8;  -58.981000;   15.852000;  -63.153000
 1; 78.0;  -48.041000;   13.615000;  -65.978000
 1; 79.2;  -33.406000;   11.270000;  -68.033000
 1; 80.4;  -19.011000;    8.908800;  -69.017000
 1; 81.6;   -8.130800;    6.579100;  -69.077000
 1; 82.8;   -2.012700;    4.252000;  -68.544000
 1; 84.0;   -0.026082;    1.945100;  -67.989000
 1; 85.2;    0.410820;   -0.340450;  -67.806000
 1; 86.4;    2.398500;   -2.601800;  -68.164000
 1; 87.6;    8.298900;   -4.850400;  -68.787000
 1; 88.8;   19.369000;   -7.232400;  -69.234000
 1; 90.0;   34.320000;   -9.639400;  -68.935000
 1; 91.2;   49.183000;  -12.021000;  -67.581000
 1; 92.4;   60.114000;  -14.261000;  -65.204000
 1; 93.6;   65.599000;  -16.301000;  -62.349000
 1; 94.8;   67.011000;  -18.275000;  -59.364000
 1; 96.0;   66.570000;  -20.162000;  -56.742000
 1; 97.2;   66.827000;  -21.985000;  -54.700000
 1; 98.4;   69.929000;  -23.763000;  -53.122000
 1; 99.6;   77.025000;  -25.510000;  -51.591000
 1;100.8;   88.169000;  -27.275000;  -49.542000
 1;102.0;  100.970000;  -28.964000;  -46.568000
 1;103.2;  111.820000;  -30.492000;  -42.537000
 1;104.4;  118.360000;  -31.780000;  -37.790000
 1;105.6;  121.030000;  -32.816000;  -32.633000
 1;106.8;  121.220000;  -33.638000;  -27.343000
 1;108.0;  120.120000;  -34.288000;  -22.200000
 1;109.2;  118.670000;  -34.734000;  -17.450000
 1;110.4;  117.310000;  -35.062000;  -13.200000
 1;111.6;  116.220000;  -35.317000;   -9.335200
 1;112.8;  115.490000;  -35.409000;   -5.646800
 1;114.0;  115.110000;  -35.466000;   -2.084800
 1;115.2;  115.180000;  -35.463000;    1.382200
 1;116.4;  115.600000;  -35.400000;    4.808600
 1;117.6;  116.340000;  -35.261000;    8.326600
 1;118.8;  117.390000;  -35.038000;   12.145000
 1;120.0;  118.620000;  -34.695000;   16.364000
 1;121.2;  119.710000;  -34.215000;   20.953000
 1;122.4;  120.090000;  -33.604000;   25.790000
 1;123.6;  118.870000;  -32.768000;   30.840000
 1;124.8;  114.640000;  -31.692000;   36.051000
 1;126.0;  106.290000;  -30.374000;   41.001000
 1;127.2;   94.489000;  -28.826000;   45.202000
 1;128.4;   82.333000;  -27.181000;   48.353000
 1;129.6;   72.670000;  -25.463000;   50.554000
 1;130.8;   66.781000;  -23.669000;   52.209000
 1;132.0;   64.732000;  -21.855000;   53.675000
 1;133.2;   64.790000;  -20.040000;   55.449000
 1;134.4;   64.710000;  -18.207000;   57.710000
 1;135.6;   62.183000;  -16.290000;   60.391000
 1;136.8;   55.082000;  -14.181000;   63.289000
 1;138.0;   42.988000;  -11.912000;   65.839000
 1;139.2;   28.179000;   -9.556100;   67.545000
 1;140.4;   14.759000;   -7.206300;   68.204000
 1;141.6;    5.331500;   -4.903500;   68.006000
 1;142.8;    0.435010;   -2.595800;   67.400000
 1;144.0;   -1.113200;   -0.317300;   66.861000
 1;145.2;   -2.060000;    1.916400;   66.748000
 1;146.4;   -5.203000;    4.131800;   67.079000
 1;147.6;  -12.393000;    6.371900;   67.538000
 1;148.8;  -24.254000;    8.698200;   67.685000
 1;150.0;  -38.766000;   11.058000;   67.008000
 1;151.2;  -52.120000;   13.339000;   65.294000
 1;152.4;  -61.125000;   15.492000;   62.762000
 1;153.6;  -65.311000;   17.440000;   59.863000
 1;154.8;  -66.256000;   19.347000;   56.966000
 1;156.0;  -66.120000;   21.174000;   54.463000
 1;157.2;  -67.200000;   22.961000;   52.468000
 1;158.4;  -71.275000;   24.687000;   50.819000
 1;159.6;  -78.887000;   26.373000;   49.097000
 1;160.8;  -89.703000;   28.049000;   46.797000
 1;162.0; -101.190000;   29.636000;   43.609000
 1;163.2; -110.310000;   31.058000;   39.488000
 1;164.4; -115.520000;   32.229000;   34.776000
 1;165.6; -117.520000;   33.176000;   29.795000
 1;166.8; -117.490000;   33.944000;   24.715000
 1;168.0; -116.450000;   34.525000;   19.825000
 1;169.2; -115.090000;   34.967000;   15.277000
 1;170.4; -113.860000;   35.257000;   11.166000
 1;171.6; -112.890000;   35.458000;    7.432300
 1;172.8; -112.190000;   35.580000;    3.837800
 1;174.0; -111.830000;   35.634000;    0.374120
 1;175.2; -111.860000;   35.608000;   -3.046700
 1;176.4; -112.230000;   35.540000;   -6.458300
 1;177.6; -112.850000;   35.376000;   -9.934600
 1;178.8; -113.690000;   35.131000;  -13.720000
 1;180.0; -114.580000;   34.791000;  -17.838000
 1;181.2; -115.200000;   34.276000;  -22.293000
 1;182.4; -114.950000;   33.627000;  -26.984000
 1;183.6; -113.040000;   32.790000;  -31.749000
 1;184.8; -108.280000;   31.725000;  -36.634000
 1;186.0; -100.110000;   30.429000;  -41.169000
 1;187.2;  -89.374000;   28.935000;  -45.042000
 1;188.4;  -78.742000;   27.339000;  -47.971000
 1;189.6;  -70.517000;   25.684000;  -50.091000
 1;190.8;  -65.386000;   23.968000;  -51.778000
 1;192.0;  -63.240000;   22.223000;  -53.380000
 1;193.2;  -62.631000;   20.453000;  -55.230000
 1;194.4;  -61.542000;   18.651000;  -57.463000
 1;195.6;  -58.131000;   16.776000;  -59.993000
 1;196.8;  -50.793000;   14.732000;  -62.633000
 1;198.0;  -39.495000;   12.564000;  -64.886000
 1;199.2;  -26.308000;   10.285000;  -66.395000
 1;200.4;  -14.562000;    8.028700;  -66.992000
 1;201.6;   -6.353500;    5.837500;  -66.899000
 1;202.8;   -1.654900;    3.630300;  -66.460000
 1;204.0;    0.543870;    1.422400;  -66.082000
 1;205.2;    2.486800;   -0.777340;  -66.037000
 1;206.4;    6.472100;   -2.956900;  -66.305000
 1;207.6;   13.803000;   -5.104700;  -66.597000
 1;208.8;   24.791000;   -7.357500;  -66.535000
 1;210.0;   37.723000;   -9.631500;  -65.741000
 1;211.2;   49.375000;  -11.857000;  -64.075000
 1;212.4;   57.500000;  -13.934000;  -61.712000
 1;213.6;   61.604000;  -15.839000;  -59.062000
 1;214.8;   63.164000;  -17.698000;  -56.394000
 1;216.0;   63.839000;  -19.501000;  -54.005000
 1;217.2;   65.549000;  -21.236000;  -52.029000
 1;218.4;   69.703000;  -22.930000;  -50.291000
 1;219.6;   76.698000;  -24.536000;  -48.491000
 1;220.8;   86.235000;  -26.142000;  -46.167000
 1;222.0;   96.325000;  -27.656000;  -43.066000
 1;223.2;  104.620000;  -29.021000;  -39.163000
 1;224.4;  109.700000;  -30.164000;  -34.727000
 1;225.6;  111.980000;  -31.087000;  -30.097000
 1;226.8;  112.440000;  -31.852000;  -25.287000
 1;228.0;  111.850000;  -32.426000;  -20.608000
 1;229.2;  110.850000;  -32.852000;  -16.204000
 1;230.4;  109.860000;  -33.154000;  -12.206000
 1;231.6;  109.040000;  -33.343000;   -8.584700
 1;232.8;  108.480000;  -33.468000;   -5.044400
 1;234.0;  108.180000;  -33.520000;   -1.612500
 1;235.2;  108.190000;  -33.473000;    1.791700
 1;236.4;  108.500000;  -33.395000;    5.148600
 1;237.6;  109.020000;  -33.218000;    8.545800
 1;238.8;  109.730000;  -32.965000;   12.242000
 1;240.0;  110.460000;  -32.602000;   16.235000
 1;241.2;  110.900000;  -32.109000;   20.515000
 1;242.4;  110.590000;  -31.465000;   25.011000
 1;243.6;  108.840000;  -30.654000;   29.548000
 1;244.8;  104.720000;  -29.638000;   34.220000
 1;246.0;   97.677000;  -28.400000;   38.641000
 1;247.2;   88.263000;  -26.981000;   42.501000
 1;248.4;   78.544000;  -25.465000;   45.554000
 1;249.6;   70.552000;  -23.908000;   47.823000
 1;250.8;   64.999000;  -22.238000;   49.661000
 1;252.0;   62.110000;  -20.560000;   51.329000
 1;253.2;   60.802000;  -18.821000;   53.181000
 1;254.4;   59.477000;  -17.070000;   55.296000
 1;255.6;   56.471000;  -15.287000;   57.642000
 1;256.8;   50.278000;  -13.336000;   60.162000
 1;258.0;   40.546000;  -11.234000;   62.431000
 1;259.2;   28.521000;   -9.039300;   64.086000
 1;260.4;   17.264000;   -6.871300;   64.898000
 1;261.6;    8.584800;   -4.733900;   65.029000
 1;262.8;    2.978000;   -2.574200;   64.752000
 1;264.0;   -0.054672;   -0.409910;   64.423000
 1;265.2;   -2.321300;    1.749100;   64.321000
 1;266.4;   -5.799300;    3.851000;   64.500000
 1;267.6;  -11.935000;    5.947300;   64.762000
 1;268.8;  -21.401000;    8.112700;   64.796000
 1;270.0;  -33.163000;   10.302000;   64.259000
 1;271.2;  -44.774000;   12.456000;   62.895000
 1;272.4;  -53.653000;   14.511000;   60.845000
 1;273.6;  -58.886000;   16.372000;   58.437000
 1;274.8;  -61.440000;   18.204000;   55.847000
 1;276.0;  -62.616000;   19.960000;   53.476000
 1;277.2;  -64.232000;   21.669000;   51.428000
 1;278.4;  -67.721000;   23.320000;   49.642000
 1;279.6;  -73.732000;   24.895000;   47.903000
 1;280.8;  -82.250000;   26.464000;   45.749000
 1;282.0;  -91.910000;   27.935000;   42.911000
 1;283.2; -100.530000;   29.301000;   39.305000
 1;284.4; -106.420000;   30.479000;   35.128000
 1;285.6; -109.500000;   31.433000;   30.672000
 1;286.8; -110.580000;   32.220000;   25.986000
 1;288.0; -110.440000;   32.860000;   21.360000
 1;289.2; -109.730000;   33.337000;   16.938000
 1;290.4; -108.880000;   33.676000;   12.877000
 1;291.6; -108.140000;   33.893000;    9.206500
 1;292.8; -107.600000;   34.053000;    5.649300
 1;294.0; -107.310000;   34.132000;    2.206300
 1;295.2; -107.310000;   34.135000;   -1.184200
 1;296.4; -107.610000;   34.089000;   -4.492700
 1;297.6; -108.140000;   33.957000;   -7.822300
 1;298.8; -108.890000;   33.754000;  -11.429000
 1;300.0; -109.710000;   33.441000;  -15.303000
 1;301.2; -110.400000;   33.008000;  -19.540000
 1;302.4; -110.480000;   32.449000;  -23.938000
 1;303.6; -109.400000;   31.710000;  -28.438000
 1;304.8; -106.260000;   30.778000;  -33.135000
 1;306.0; -100.290000;   29.654000;  -37.679000
 1;307.2;  -91.639000;   28.322000;  -41.759000
 1;308.4;  -81.969000;   26.864000;  -45.088000
 1;309.6;  -73.465000;   25.358000;  -47.583000
 1;310.8;  -67.137000;   23.722000;  -49.591000
 1;312.0;  -63.622000;   22.070000;  -51.347000
 1;313.2;  -62.135000;   20.363000;  -53.164000
 1;314.4;  -61.174000;   18.655000;  -55.257000
 1;315.6;  -58.943000;   16.895000;  -57.667000
 1;316.8;  -53.800000;   14.993000;  -60.277000
 1;318.0;  -44.873000;   12.930000;  -62.742000
 1;319.2;  -33.002000;   10.766000;  -64.691000
 1;320.4;  -21.054000;    8.597400;  -65.794000
 1;321.6;  -11.386000;    6.448400;  -66.143000
 1;322.8;   -4.829500;    4.268800;  -65.991000
 1;324.0;   -1.367200;    2.090000;  -65.682000
 1;325.2;    0.682790;   -0.071604;  -65.573000
 1;326.4;    3.472400;   -2.194000;  -65.787000
 1;327.6;    8.826400;   -4.308200;  -66.171000
 1;328.8;   17.848000;   -6.490100;  -66.410000
 1;330.0;   29.835000;   -8.748400;  -66.152000
 1;331.2;   42.428000;  -10.970000;  -65.028000
 1;332.4;   52.543000;  -13.084000;  -63.124000
 1;333.6;   58.806000;  -15.047000;  -60.737000
 1;334.8;   61.839000;  -16.935000;  -58.116000
 1;336.0;   62.951000;  -18.765000;  -55.659000
 1;337.2;   64.074000;  -20.534000;  -53.557000
 1;338.4;   66.920000;  -22.257000;  -51.825000
 1;339.6;   72.524000;  -23.900000;  -50.205000
 1;340.8;   81.311000;  -25.566000;  -48.214000
 1;342.0;   91.843000;  -27.172000;  -45.553000
 1;343.2;  101.810000;  -28.663000;  -42.007000
 1;344.4;  108.870000;  -29.949000;  -37.794000
 1;345.6;  112.640000;  -31.020000;  -33.196000
 1;346.8;  114.030000;  -31.929000;  -28.301000
 1;348.0;  113.880000;  -32.645000;  -23.439000
 1;349.2;  113.000000;  -33.191000;  -18.821000
 1;350.4;  111.970000;  -33.612000;  -14.586000
 1;351.6;  111.090000;  -33.894000;  -10.771000
 1;352.8;  110.380000;  -34.077000;   -7.105700
 1;354.0;  110.000000;  -34.216000;   -3.602100
 1;355.2;  109.960000;  -34.266000;   -0.170210
 1;356.4;  110.230000;  -34.243000;    3.170400
 1;357.6;  110.790000;  -34.150000;    6.535100
 1;358.8;  111.620000;  -33.987000;   10.142000
 2;  0.0;  113.410000;    4.825200;   29.671000
 2;  1.2;  113.470000;    5.085900;   36.215000
 2;  2.4;  110.150000;    5.306900;   42.751000
 2;  3.6;  102.160000;    5.474200;   48.808000
 2;  4.8;   89.305000;    5.589200;   54.245000
 2;  6.0;   74.806000;    5.607900;   58.503000
 2;  7.2;   63.055000;    5.570900;   61.471000
 2;  8.4;   56.806000;    5.502200;   63.481000
 2;  9.6;   55.679000;    5.446200;   65.208000
 2; 10.8;   57.813000;    5.433900;   67.301000
 2; 12.0;   60.467000;    5.450300;   70.147000
 2; 13.2;   60.251000;    5.487600;   73.722000
 2; 14.4;   54.359000;    5.515600;   77.488000
 2; 15.6;   41.956000;    5.496600;   80.858000
 2; 16.8;   25.070000;    5.384200;   83.258000
 2; 18.0;    9.007100;    5.195600;   84.280000
 2; 19.2;   -1.522300;    4.967100;   84.079000
 2; 20.4;   -5.028100;    4.745300;   83.273000
 2; 21.6;   -3.758500;    4.548900;   82.627000
 2; 22.8;   -1.260900;    4.396600;   82.586000
 2; 24.0;   -1.541700;    4.262900;   83.289000
 2; 25.2;   -8.029700;    4.128100;   84.314000
 2; 26.4;  -21.192000;    3.944700;   84.920000
 2; 27.6;  -37.980000;    3.689700;   84.455000
 2; 28.8;  -53.987000;    3.377200;   82.578000
 2; 30.0;  -64.067000;    3.003800;   79.419000
 2; 31.2;  -66.784000;    2.649800;   75.646000
 2; 32.4;  -64.689000;    2.338700;   72.103000
 2; 33.6;  -61.412000;    2.073600;   69.320000
 2; 34.8;  -59.976000;    1.848100;   67.246000
 2; 36.0;  -63.302000;    1.632200;   65.639000
 2; 37.2;  -72.820000;    1.376500;   63.898000
 2; 38.4;  -86.888000;    1.059400;   61.346000
 2; 39.6; -101.430000;    0.700970;   57.583000
 2; 40.8; -112.640000;    0.278280;   52.330000
 2; 42.0; -117.980000;   -0.177650;   45.955000
 2; 43.2; -118.460000;   -0.595120;   39.154000
 2; 44.4; -116.500000;   -1.002100;   32.540000
 2; 45.6; -113.820000;   -1.331100;   26.491000
 2; 46.8; -111.060000;   -1.616400;   20.829000
 2; 48.0; -108.710000;   -1.879600;   15.626000
 2; 49.2; -106.910000;   -2.096200;   10.889000
 2; 50.4; -105.730000;   -2.297800;    6.631500
 2; 51.6; -105.170000;   -2.475600;    2.613900
 2; 52.8; -105.190000;   -2.676500;   -1.423300
 2; 54.0; -105.810000;   -2.866500;   -5.594700
 2; 55.2; -107.060000;   -3.064400;   -9.925000
 2; 56.4; -108.800000;   -3.289200;  -14.512000
 2; 57.6; -110.940000;   -3.510700;  -19.462000
 2; 58.8; -113.310000;   -3.751900;  -25.042000
 2; 60.0; -115.280000;   -4.019200;  -31.348000
 2; 61.2; -115.470000;   -4.281400;  -38.108000
 2; 62.4; -111.840000;   -4.511000;  -44.855000
 2; 63.6; -102.780000;   -4.673100;  -51.147000
 2; 64.8;  -88.456000;   -4.741000;  -56.621000
 2; 66.0;  -72.692000;   -4.728700;  -60.791000
 2; 67.2;  -60.595000;   -4.660400;  -63.550000
 2; 68.4;  -54.881000;   -4.575200;  -65.341000
 2; 69.6;  -54.753000;   -4.501300;  -66.899000
 2; 70.8;  -57.936000;   -4.466900;  -68.973000
 2; 72.0;  -61.248000;   -4.476700;  -71.913000
 2; 73.2;  -61.037000;   -4.500900;  -75.635000
 2; 74.4;  -54.218000;   -4.512900;  -79.556000
 2; 75.6;  -40.236000;   -4.466600;  -82.951000
 2; 76.8;  -21.987000;   -4.307900;  -85.254000
 2; 78.0;   -5.582300;   -4.091700;  -86.029000
 2; 79.2;    4.107300;   -3.825100;  -85.573000
 2; 80.4;    6.210400;   -3.569700;  -84.618000
 2; 81.6;    3.748100;   -3.365800;  -83.957000
 2; 82.8;    0.645400;   -3.208600;  -84.049000
 2; 84.0;    1.252000;   -3.071200;  -84.918000
 2; 85.2;    9.086300;   -2.904600;  -86.056000
 2; 86.4;   23.984000;   -2.693600;  -86.609000
 2; 87.6;   42.045000;   -2.422200;  -85.951000
 2; 88.8;   58.176000;   -2.068600;  -83.734000
 2; 90.0;   67.148000;   -1.671600;  -80.247000
 2; 91.2;   68.366000;   -1.299700;  -76.267000
 2; 92.4;   65.174000;   -0.979350;  -72.650000
 2; 93.6;   61.413000;   -0.733650;  -69.924000
 2; 94.8;   60.168000;   -0.514460;  -67.951000
 2; 96.0;   64.387000;   -0.271000;  -66.430000
 2; 97.2;   75.212000;   -0.009619;  -64.638000
 2; 98.4;   90.353000;    0.316740;  -61.892000
 2; 99.6;  105.170000;    0.696490;  -57.844000
 2;100.8;  115.670000;    1.126300;  -52.302000
 2;102.0;  119.910000;    1.573600;  -45.662000
 2;103.2;  119.550000;    1.990300;  -38.691000
 2;104.4;  117.100000;    2.350300;  -32.037000
 2;105.6;  114.180000;    2.655400;  -25.957000
 2;106.8;  111.340000;    2.933900;  -20.348000
 2;108.0;  108.980000;    3.175100;  -15.231000
 2;109.2;  107.220000;    3.372700;  -10.560000
 2;110.4;  106.100000;    3.563100;   -6.313800
 2;111.6;  105.620000;    3.722900;   -2.315800
