# *CALIBRATION************
# Voff:  -0.000557, -0.000502, 0.000355
# Oe*Vref/V:  18766.300781, 19118.269531, 18920.400390
# mV/Vref/Oe:  0.053287, 0.052306, 0.052853
# Hrel:  0.000000, 0.000000, 0.000000
# ADC Vref:  4.000000
# ADC Bits:  16
# ADC samples:  10
# ADC Speed:  4
# Linearization
# A0:  0.000000, 0.000000, 0.000000
# A1:  1.000000, 1.000000, 1.000000
# A2:  0.000000, 0.000000, 0.000000
# A3:  0.222500, 0.222500, 0.222500
# A4:  0.000000, 0.000000, 0.000000
# A5:  3.403000, 3.403000, 3.403000
# Orthogonalization
# 1.000000, 0.000000, 0.000000
# 0.000000, 1.000000, 0.000000
# 0.000000, 0.000000, 1.000000
# EEPROM Cal Valid, Valid, Valid
# EEPROM Lin Valid, Valid, Valid
# EEPROM Ortho Not Valid
# Sensor ID:   USB25103-1715507101             
# Software Version:  MDTUSBMAG3D.V9.20220510
# ************************
# 
# SENSOR_NB_SAMPLE: 10 
# SENSOR_GAIN: 1 
# SENSOR_READ_DELAY: 0.7 
# SENSOR_Oe_mT: 0.1 
# working dist: 5 mm
# Rotation step angle: 1.2°
# sensor pos #1: 15 mm
# sensor pos #2: 35 mm
# sensor pos #3: 45 mm
# sensor pos #4: 55 mm
#
# angle[°]; X1_magn [mT]; Y1_magn [mT]; Z1_magn [mT]; X2_magn [mT]; Y2_magn [mT]; Z2_magn [mT]; X3_magn [mT]; Y3_magn [mT]; Z3_magn [mT]; X4_magn [mT]; Y4_magn [mT]; Z4_magn [mT]
  0.0; -100.170000;   -7.865300;   57.382000;  -82.351000;   -2.888900;   63.784000;  -80.292000;   -0.567110;   66.086000;  -66.428000;    0.626290;   67.780000
  1.2;  -54.261000;    0.985130;   69.537000;  -65.130000;   -0.126120;   68.530000;  -67.265000;   -2.434100;   66.620000;  -87.459000;   -7.177500;   61.207000
  2.4;  -73.545000;   -6.489300;   63.860000;  -55.960000;   -2.038300;   68.249000;  -54.862000;    0.209940;   69.936000;  -48.506000;    1.191200;   70.560000
  3.6;  -48.984000;    1.391800;   71.605000;  -50.931000;    0.542650;   70.916000;  -50.520000;   -1.578700;   69.378000;  -62.263000;   -5.865700;   65.507000
  4.8;  -56.492000;   -5.210400;   66.540000;  -50.797000;   -1.231000;   70.550000;  -52.575000;    0.731960;   72.141000;  -53.036000;    1.562800;   73.318000
  6.0;  -56.910000;    1.763300;   75.912000;  -56.553000;    1.021300;   74.166000;  -54.023000;   -0.868820;   72.377000;  -55.790000;   -4.583800;   67.618000
  7.2;  -57.757000;   -3.986400;   69.190000;  -56.908000;   -0.529770;   74.893000;  -59.495000;    1.332800;   76.932000;  -57.083000;    2.045600;   79.118000
  8.4;  -50.297000;    2.385000;   82.486000;  -58.070000;    1.737900;   80.250000;  -56.255000;   -0.209390;   78.035000;  -59.673000;   -3.338900;   71.496000
  9.6;  -58.543000;   -2.571200;   74.358000;  -48.982000;    0.232350;   81.279000;  -49.024000;    2.164000;   83.425000;  -34.888000;    2.791300;   85.284000
 10.8;  -15.316000;    3.185600;   86.604000;  -32.427000;    2.648300;   85.503000;  -34.197000;    0.687530;   83.628000;  -51.538000;   -1.714600;   77.211000
 12.0;  -38.200000;   -0.908780;   79.163000;  -16.409000;    1.188600;   84.615000;  -14.130000;    3.064600;   86.093000;    1.449200;    3.539200;   86.330000
 13.2;   10.898000;    3.765900;   85.025000;    0.357310;    3.418600;   85.321000;   -1.206700;    1.655400;   84.296000;  -22.039000;   -0.110060;   79.926000
 14.4;   -7.301300;    0.699470;   79.539000;    7.899000;    2.093000;   82.969000;    7.836000;    3.665100;   83.828000;   12.595000;    3.845400;   83.363000
 15.6;    8.986600;    3.953300;   82.151000;    8.139900;    3.882400;   82.238000;    9.831100;    2.475800;   81.403000;    2.206800;    1.489200;   78.330000
 16.8;    5.145700;    2.177000;   76.842000;    7.169300;    2.812900;   80.399000;    4.577500;    4.073600;   81.373000;    4.850200;    4.081800;   81.863000
 18.0;    4.832300;    4.256900;   82.310000;    1.748700;    4.316600;   81.352000;    4.264500;    3.121000;   80.183000;    3.970600;    2.864800;   75.871000
 19.2;    2.296600;    3.531000;   75.500000;    5.032800;    3.417100;   80.543000;    3.558200;    4.591800;   81.806000;   11.996000;    4.456300;   82.831000
 20.4;   27.161000;    4.738200;   82.662000;   12.850000;    4.989900;   82.031000;   12.521000;    3.780400;   80.882000;    3.769700;    4.262500;   75.522000
 21.6;   11.166000;    5.062000;   75.641000;   27.282000;    4.190400;   80.446000;   29.210000;    5.279700;   81.309000;   46.883000;    5.039600;   81.094000
 22.8;   63.814000;    5.245300;   77.934000;   47.945000;    5.595200;   79.036000;   45.388000;    4.586600;   78.612000;   24.938000;    5.860300;   74.973000
 24.0;   41.181000;    6.656000;   73.173000;   60.605000;    4.988400;   75.471000;   62.253000;    5.831500;   75.458000;   72.442000;    5.404400;   73.747000
 25.2;   73.116000;    5.403300;   69.398000;   68.926000;    5.904000;   71.251000;   68.810000;    5.299400;   71.454000;   55.529000;    7.320700;   70.231000
 26.4;   64.410000;    7.945800;   66.374000;   70.137000;    5.573200;   67.228000;   68.628000;    5.965600;   66.910000;   69.090000;    5.338700;   65.394000
 27.6;   64.150000;    5.279700;   62.243000;   64.621000;    5.965200;   63.187000;   67.001000;    5.770700;   63.370000;   67.019000;    8.427100;   62.362000
 28.8;   65.292000;    8.923700;   58.690000;   63.179000;    5.946900;   60.449000;   60.747000;    6.047000;   60.400000;   61.915000;    5.263600;   60.005000
 30.0;   65.344000;    5.345700;   58.150000;   60.310000;    6.137400;   58.310000;   61.992000;    6.102300;   58.228000;   62.758000;    9.480900;   55.684000
 31.2;   62.328000;    9.986800;   53.504000;   65.674000;    6.266900;   56.367000;   65.372000;    6.307600;   56.406000;   75.229000;    5.482400;   55.988000
 32.4;   90.530000;    5.619500;   52.754000;   76.858000;    6.450700;   53.749000;   75.523000;    6.494300;   53.963000;   66.152000;   10.486000;   51.483000
 33.6;   75.595000;   11.056000;   48.955000;   90.263000;    6.733300;   50.387000;   92.597000;    6.647100;   49.769000;  106.930000;    5.643700;   47.903000
 34.8;  117.820000;    5.652700;   41.693000;  107.340000;    6.638500;   44.300000;  105.020000;    6.960400;   45.420000;   89.010000;   11.531000;   45.531000
 36.0;  102.650000;   12.035000;   40.819000;  115.100000;    7.132100;   39.374000;  116.340000;    6.648600;   37.900000;  121.640000;    5.542900;   34.762000
 37.2;  120.750000;    5.354300;   27.869000;  119.050000;    6.475300;   31.031000;  118.940000;    7.219500;   32.776000;  112.350000;   12.388000;   35.259000
 38.4;  117.010000;   12.625000;   28.992000;  118.590000;    7.223600;   26.026000;  117.810000;    6.310600;   24.165000;  117.690000;    5.113500;   21.121000
 39.6;  113.940000;    4.831900;   14.778000;  114.790000;    6.026800;   17.458000;  115.860000;    7.198600;   19.309000;  117.540000;   12.741000;   22.424000
 40.8;  115.750000;   12.815000;   16.235000;  112.680000;    7.050000;   13.321000;  111.510000;    5.871500;   11.594000;  110.490000;    4.587000;    9.187300
 42.0;  107.680000;    4.347300;    4.255000;  108.540000;    5.585500;    6.318500;  109.650000;    6.954400;    7.967100;  113.280000;   12.749000;   10.641000
 43.2;  110.910000;   12.728000;    5.773100;  107.270000;    6.861400;    3.366700;  106.320000;    5.333100;    1.824600;  105.610000;    4.126200;   -0.080412
 44.4;  104.160000;    3.917500;   -4.184500;  104.610000;    5.119100;   -2.476900;  105.380000;    6.714300;   -0.977650;  108.900000;   12.615000;    1.320900
 45.6;  107.300000;   12.556000;   -2.898900;  104.090000;    6.558600;   -5.115400;  103.520000;    4.954800;   -6.567700;  103.320000;    3.740500;   -8.217000
 46.8;  103.130000;    3.574300;  -12.194000;  103.080000;    4.759100;  -10.584000;  103.420000;    6.445100;   -9.103100;  106.290000;   12.525000;   -6.823000
 48.0;  105.870000;   12.488000;  -10.505000;  103.380000;    6.255700;  -12.976000;  103.280000;    4.647900;  -14.460000;  103.600000;    3.353300;  -16.196000
 49.2;  104.580000;    3.195300;  -20.285000;  104.020000;    4.421900;  -18.452000;  103.850000;    6.161300;  -16.825000;  105.940000;   12.375000;  -14.092000
 50.4;  106.490000;   12.240000;  -17.831000;  104.880000;    5.998500;  -20.986000;  105.300000;    4.292000;  -22.747000;  106.130000;    3.078100;  -24.826000
 51.6;  108.200000;    2.871900;  -29.981000;  107.180000;    4.039600;  -27.656000;  106.450000;    5.870000;  -25.705000;  107.590000;   12.063000;  -21.943000
 52.8;  109.080000;   11.839000;  -26.307000;  108.410000;    5.656400;  -30.743000;  109.440000;    3.860700;  -32.885000;  110.430000;    2.661700;  -35.643000
 54.0;  112.220000;    2.357800;  -41.797000;  111.650000;    3.572400;  -38.731000;  110.420000;    5.452900;  -36.356000;  110.860000;   11.523000;  -31.052000
 55.2;  112.590000;   11.204000;  -36.048000;  111.810000;    5.280400;  -42.122000;  113.210000;    3.212100;  -44.713000;  112.310000;    1.972400;  -48.052000
 56.4;  108.600000;    1.567600;  -54.441000;  112.550000;    2.793500;  -51.118000;  111.490000;    4.951800;  -48.362000;  113.860000;   10.705000;  -41.554000
 57.6;  113.350000;   10.224000;  -47.454000;  107.340000;    4.604500;  -54.622000;  107.560000;    2.322700;  -57.362000;   98.630000;    1.175600;  -60.409000
 58.8;   83.009000;    0.663250;  -65.182000;   96.132000;    1.817800;  -62.801000;   97.294000;    4.198600;  -60.231000;  109.170000;    9.714200;  -53.181000
 60.0;  100.230000;    9.107500;  -58.134000;   82.748000;    3.711000;  -64.548000;   80.562000;    1.341700;  -66.800000;   66.450000;    0.197250;  -68.407000
 61.2;   54.207000;   -0.139940;  -70.204000;   65.408000;    0.945920;  -69.266000;   67.653000;    3.305500;  -67.367000;   87.275000;    8.412500;  -61.976000
 62.4;   73.338000;    7.728100;  -64.609000;   56.227000;    2.874600;  -69.077000;   54.946000;    0.601270;  -70.708000;   48.295000;   -0.367710;  -71.261000
 63.6;   48.490000;   -0.542090;  -72.317000;   50.784000;    0.321220;  -71.684000;   50.641000;    2.457500;  -70.167000;   62.149000;    7.020500;  -66.255000
 64.8;   56.482000;    6.377100;  -67.276000;   50.773000;    2.088200;  -71.360000;   52.228000;    0.080745;  -72.958000;   52.332000;   -0.721330;  -74.015000
 66.0;   56.170000;   -0.896080;  -76.597000;   56.103000;   -0.188480;  -74.953000;   53.956000;    1.699100;  -73.206000;   55.813000;    5.735600;  -68.380000
 67.2;   57.825000;    5.116800;  -69.939000;   56.761000;    1.436900;  -75.705000;   58.944000;   -0.393480;  -77.685000;   56.453000;   -1.137300;  -79.765000
 68.4;   49.898000;   -1.489000;  -83.102000;   57.526000;   -0.824760;  -80.967000;   56.266000;    1.063900;  -78.865000;   59.847000;    4.359600;  -72.302000
 69.6;   58.768000;    3.617600;  -75.157000;   48.961000;    0.665120;  -82.012000;   48.672000;   -1.295600;  -84.097000;   34.977000;   -1.874000;  -85.828000
 70.8;   15.618000;   -2.271300;  -87.157000;   32.282000;   -1.747100;  -86.195000;   34.435000;    0.170740;  -84.433000;   51.602000;    2.873100;  -77.886000
 72.0;   38.472000;    2.031000;  -79.948000;   16.309000;   -0.318800;  -85.391000;   13.729000;   -2.145100;  -86.797000;   -1.643600;   -2.604000;  -86.958000
 73.2;  -11.336000;   -2.824300;  -85.658000;   -0.837210;   -2.517400;  -86.005000;    0.985170;   -0.780320;  -84.975000;   21.996000;    1.219300;  -80.638000
 74.4;    7.282900;    0.420170;  -80.232000;   -8.197900;   -1.198500;  -83.656000;   -8.394000;   -2.763800;  -84.465000;  -13.339000;   -2.971100;  -83.964000
 75.6;   -9.989100;   -3.066300;  -82.657000;   -8.885100;   -2.966600;  -82.810000;  -10.323000;   -1.564800;  -82.040000;   -2.331200;   -0.383400;  -79.025000
 76.8;   -5.437200;   -1.089900;  -77.503000;   -7.741900;   -1.914700;  -80.964000;   -5.399400;   -3.139100;  -81.868000;   -5.839200;   -3.165300;  -82.263000
 78.0;   -5.524000;   -3.332900;  -82.625000;   -2.509700;   -3.391200;  -81.731000;   -4.737500;   -2.214600;  -80.655000;   -4.337600;   -1.775100;  -76.352000
 79.2;   -2.744300;   -2.443800;  -75.923000;   -5.310700;   -2.531600;  -80.948000;   -3.970300;   -3.648400;  -82.188000;  -12.023000;   -3.571100;  -83.113000
 80.4;  -26.436000;   -3.832200;  -82.957000;  -12.860000;   -3.987900;  -82.380000;  -12.327000;   -2.858300;  -81.282000;   -3.995200;   -3.173100;  -76.029000
 81.6;  -11.146000;   -3.960600;  -76.105000;  -26.553000;   -3.236200;  -80.901000;  -28.723000;   -4.332500;  -81.691000;  -45.792000;   -4.093200;  -81.454000
 82.8;  -62.826000;   -4.301500;  -78.398000;  -47.278000;   -4.637600;  -79.485000;  -44.423000;   -3.628300;  -79.134000;  -24.599000;   -4.779500;  -75.432000
 84.0;  -41.007000;   -5.535600;  -73.585000;  -59.993000;   -3.986000;  -76.032000;  -61.890000;   -4.847100;  -75.935000;  -72.055000;   -4.400500;  -74.242000
 85.2;  -73.135000;   -4.397100;  -69.904000;  -68.751000;   -4.957600;  -71.689000;  -68.425000;   -4.340000;  -72.002000;  -55.302000;   -6.247300;  -70.619000
 86.4;  -64.287000;   -6.874700;  -66.786000;  -70.013000;   -4.599100;  -67.790000;  -68.763000;   -4.980400;  -67.404000;  -69.437000;   -4.346700;  -65.892000
 87.6;  -64.590000;   -4.292900;  -62.701000;  -64.903000;   -5.015500;  -63.635000;  -67.036000;   -4.757800;  -63.929000;  -66.948000;   -7.449700;  -62.671000
 88.8;  -65.375000;   -7.971700;  -58.954000;  -63.259000;   -4.947500;  -60.914000;  -61.027000;   -5.040900;  -60.875000;  -62.246000;   -4.254500;  -60.381000
 90.0;  -65.369000;   -4.319800;  -58.501000;  -60.512000;   -5.168200;  -58.697000;  -62.023000;   -5.143200;  -58.660000;  -62.901000;   -8.451600;  -56.033000
 91.2;  -62.469000;   -8.971000;  -53.816000;  -65.623000;   -5.356800;  -56.760000;  -65.292000;   -5.238800;  -56.840000;  -74.887000;   -4.452400;  -56.340000
 92.4;  -89.753000;   -4.578200;  -53.138000;  -76.518000;   -5.468400;  -54.145000;  -75.217000;   -5.534500;  -54.336000;  -66.210000;   -9.547500;  -51.712000
 93.6;  -75.394000;  -10.108000;  -49.211000;  -89.541000;   -5.768300;  -50.875000;  -91.895000;   -5.571100;  -50.268000; -105.700000;   -4.691400;  -48.396000
 94.8; -116.760000;   -4.709700;  -42.280000; -106.580000;   -5.658900;  -44.872000; -104.240000;   -5.992700;  -45.923000;  -88.648000;  -10.684000;  -45.716000
 96.0; -101.970000;  -11.089000;  -41.213000; -114.450000;   -6.168900;  -39.937000; -115.770000;   -5.624900;  -38.508000; -121.050000;   -4.552100;  -35.435000
 97.2; -120.370000;   -4.366900;  -28.593000; -118.610000;   -5.529700;  -31.673000; -118.510000;   -6.192800;  -33.403000; -111.640000;  -11.464000;  -35.655000
 98.4; -116.330000;  -11.725000;  -29.474000; -118.220000;   -6.294400;  -26.658000; -117.600000;   -5.345900;  -24.884000; -117.470000;   -4.052500;  -21.911000
 99.6; -113.780000;   -3.781000;  -15.595000; -114.610000;   -5.117400;  -18.215000; -115.620000;   -6.263000;  -20.011000; -116.790000;  -11.907000;  -22.911000
100.8; -115.050000;  -11.993000;  -16.740000; -112.520000;   -6.093900;  -14.013000; -111.390000;   -4.862000;  -12.327000; -110.340000;   -3.596200;   -9.988900
102.0; -107.550000;   -3.357900;   -5.053700; -108.430000;   -4.637600;   -7.052900; -109.470000;   -6.000500;   -8.671100; -112.590000;  -12.058000;  -11.174000
103.2; -110.260000;  -12.043000;   -6.313100; -107.060000;   -5.988200;   -4.035200; -106.240000;   -4.361600;   -2.571100; -105.430000;   -3.178700;   -0.722300
104.4; -103.960000;   -2.971800;    3.382900; -104.470000;   -4.239500;    1.732500; -105.150000;   -5.784300;    0.274350; -108.280000;  -11.981000;   -1.873400
105.6; -106.740000;  -11.924000;    2.290200; -103.880000;   -5.688000;    4.398000; -103.430000;   -4.031900;    5.796000; -103.120000;   -2.824700;    7.403200
106.8; -102.910000;   -2.666000;   11.346000; -102.970000;   -3.857200;    9.782300; -103.190000;   -5.605500;    8.374300; -105.730000;  -11.859000;    6.166300
108.0; -105.310000;  -11.774000;    9.831100; -103.140000;   -5.417600;   12.234000; -103.140000;   -3.701800;   13.706000; -103.360000;   -2.465100;   15.345000
109.2; -104.310000;   -2.331400;   19.401000; -103.850000;   -3.520400;   17.647000; -103.610000;   -5.272000;   16.093000; -105.380000;  -11.558000;   13.365000
110.4; -105.950000;  -11.425000;   17.088000; -104.620000;   -5.138300;   20.241000; -105.120000;   -3.368400;   21.911000; -105.820000;   -2.190700;   23.877000
111.6; -107.840000;   -2.011800;   28.961000; -106.960000;   -3.165600;   26.747000; -106.150000;   -5.012900;   24.870000; -107.020000;  -11.194000;   21.138000
112.8; -108.510000;  -10.972000;   25.488000; -108.090000;   -4.833600;   29.908000; -109.180000;   -2.948700;   31.987000; -110.120000;   -1.743000;   34.554000
114.0; -111.910000;   -1.458100;   40.640000; -111.350000;   -2.671600;   37.779000; -110.020000;   -4.628300;   35.465000; -110.180000;  -10.879000;   30.253000
115.2; -111.860000;  -10.522000;   35.205000; -111.430000;   -4.405300;   41.199000; -112.800000;   -2.410600;   43.670000; -112.050000;   -1.187000;   46.821000
116.4; -108.650000;   -0.789660;   53.144000; -112.210000;   -2.019300;   50.002000; -111.060000;   -4.163700;   47.355000; -113.000000;  -10.081000;   40.636000
117.6; -112.420000;   -9.562500;   46.442000; -107.080000;   -3.793300;   53.549000; -107.400000;   -1.560000;   56.182000;  -99.197000;   -0.357260;   59.101000
118.8;  -84.138000;    0.121070;   63.914000;  -96.218000;   -1.091000;   61.619000;  -97.363000;   -3.360200;   59.137000; -108.460000;   -8.933300;   52.094000
120.0;  -99.708000;   -8.264900;   57.038000;  -82.913000;   -2.963600;   63.428000;  -80.941000;   -0.619760;   65.628000;  -67.835000;    0.564300;   67.202000
121.2;  -55.469000;    0.908950;   69.089000;  -65.988000;   -0.189600;   68.174000;  -68.094000;   -2.501700;   66.295000;  -86.988000;   -7.592400;   60.846000
122.4;  -73.196000;   -6.888900;   63.483000;  -56.658000;   -2.071900;   68.054000;  -55.504000;    0.107630;   69.619000;  -49.182000;    1.150200;   70.200000
123.6;  -49.072000;    1.331300;   71.286000;  -51.204000;    0.421290;   70.667000;  -50.908000;   -1.664200;   69.183000;  -62.081000;   -6.237600;   65.096000
124.8;  -56.510000;   -5.562900;   66.142000;  -50.890000;   -1.307200;   70.398000;  -52.457000;    0.631520;   71.903000;  -52.716000;    1.524300;   72.959000
126.0;  -56.466000;    1.715500;   75.488000;  -56.190000;    0.892520;   73.908000;  -53.859000;   -0.911760;   72.226000;  -55.809000;   -4.903800;   67.264000
127.2;  -57.710000;   -4.278000;   68.830000;  -56.549000;   -0.630590;   74.689000;  -58.977000;    1.181200;   76.596000;  -56.880000;    1.961600;   78.638000
128.4;  -50.682000;    2.284200;   81.982000;  -57.651000;    1.542600;   79.853000;  -55.987000;   -0.260170;   77.793000;  -59.601000;   -3.586800;   71.123000
129.6;  -58.479000;   -2.833700;   73.945000;  -48.875000;    0.107260;   80.900000;  -49.175000;    1.990000;   82.993000;  -36.308000;    2.630700;   84.772000
130.8;  -17.126000;    3.007900;   86.192000;  -33.011000;    2.423900;   85.093000;  -34.397000;    0.526960;   83.273000;  -51.478000;   -2.015500;   76.729000
132.0;  -38.522000;   -1.151500;   78.761000;  -16.839000;    1.074700;   84.305000;  -14.900000;    2.855900;   85.760000;   -0.234640;    3.394300;   86.015000
133.2;    9.744900;    3.606800;   84.809000;   -0.373920;    3.204600;   85.095000;   -1.762000;    1.504200;   83.950000;  -22.635000;   -0.310210;   79.611000
134.4;   -7.979100;    0.492610;   79.251000;    7.384100;    1.969800;   82.734000;    7.302700;    3.459700;   83.619000;   12.113000;    3.744200;   83.200000
135.6;    9.098000;    3.845400;   81.971000;    8.027300;    3.659800;   82.036000;    9.640500;    2.351400;   81.222000;    1.706100;    1.221100;   77.973000
136.8;    4.917300;    1.980200;   76.502000;    7.222100;    2.689700;   80.182000;    4.760100;    3.853200;   81.147000;    5.051500;    3.957100;   81.604000
